Wavelength,Intensity
 177.185,    -58.21 
 177.571,    -58.21 
 177.957,    -58.21 
 178.343,     42.78 
 178.729,    -42.50 
 179.115,    -53.72 
 179.500,    -33.52 
 179.886,     71.96 
 180.272,     54.00 
 180.658,     29.32 
 181.043,     -8.84 
 181.429,     15.85 
 181.815,     -8.84 
 182.200,    -49.24 
 182.586,     60.74 
 182.972,    -17.81 
 183.357,     42.78 
 183.743,    -44.75 
 184.128,     24.83 
 184.513,     -6.59 
 184.899,      6.87 
 185.284,     -8.84 
 185.670,      0.14 
 186.055,   -109.83 
 186.440,    -35.77 
 186.825,     -4.35 
 187.210,    -62.70 
 187.596,     85.43 
 187.981,      9.12 
 188.366,    -15.57 
 188.751,     69.72 
 189.136,      2.38 
 189.521,     -6.59 
 189.906,      6.87 
 190.291,     11.36 
 190.676,     56.25 
 191.060,    -17.81 
 191.445,    -44.75 
 191.830,    -20.06 
 192.215,     20.34 
 192.599,    -17.81 
 192.984,    -42.50 
 193.369,    -44.75 
 193.753,      4.63 
 194.138,    -26.79 
 194.522,    -60.46 
 194.907,     15.85 
 195.291,     22.58 
 195.676,    -51.48 
 196.060,      2.38 
 196.445,    -13.33 
 196.829,    -42.50 
 197.213,     22.58 
 197.597,    -53.72 
 197.982,      6.87 
 198.366,    -64.95 
 198.750,    -20.06 
 199.134,    -20.06 
 199.518,     67.47 
 199.902,     -4.35 
 200.286,     -8.84 
 200.670,     56.25 
 201.054,     -8.84 
 201.438,     -2.10 
 201.822,      2.38 
 202.206,    -40.26 
 202.590,    -31.28 
 202.973,     11.36 
 203.357,    -73.92 
 203.741,    -49.24 
 204.124,      4.63 
 204.508,     27.07 
 204.892,     -2.10 
 205.275,      0.14 
 205.659,     24.83 
 206.042,     47.27 
 206.426,    -55.97 
 206.809,    -17.81 
 207.193,    -55.97 
 207.576,    -44.75 
 207.959,     22.58 
 208.342,    -35.77 
 208.726,    -71.68 
 209.109,    -24.55 
 209.492,    -26.79 
 209.875,      9.12 
 210.258,    -76.17 
 210.641,   -105.34 
 211.025,    -42.50 
 211.408,     22.58 
 211.790,     18.10 
 212.173,     20.34 
 212.556,    -22.30 
 212.939,    -44.75 
 213.322,     45.03 
 213.705,      2.38 
 214.088,    -33.52 
 214.470,      0.14 
 214.853,     15.85 
 215.236,    -60.46 
 215.618,      9.12 
 216.001,    -40.26 
 216.383,     31.56 
 216.766,    -31.28 
 217.148,     47.27 
 217.531,    -24.55 
 217.913,     38.29 
 218.296,   -103.10 
 218.678,    -11.08 
 219.060,     -4.35 
 219.443,    -17.81 
 219.825,    -40.26 
 220.207,    -20.06 
 220.589,      9.12 
 220.971,     40.54 
 221.353,     31.56 
 221.735,    -35.77 
 222.118,    -80.66 
 222.500,    -13.33 
 222.881,    -35.77 
 223.263,    -78.41 
 223.645,    -96.37 
 224.027,    -31.28 
 224.409,      2.38 
 224.791,     20.34 
 225.172,    -33.52 
 225.554,    -89.63 
 225.936,     38.29 
 226.317,     38.29 
 226.699,    -51.48 
 227.081,    -20.06 
 227.462,    -13.33 
 227.844,    -13.33 
 228.225,    -49.24 
 228.607,    -80.66 
 228.988,    -26.79 
 229.369,     65.23 
 229.751,     33.81 
 230.132,      2.38 
 230.513,     -4.35 
 230.894,    -24.55 
 231.276,     -2.10 
 231.657,     22.58 
 232.038,     22.58 
 232.419,    -29.04 
 232.800,    -49.24 
 233.181,     -2.10 
 233.562,     58.49 
 233.943,    -58.21 
 234.324,    -62.70 
 234.705,      6.87 
 235.085,     54.00 
 235.466,    -22.30 
 235.847,    -29.04 
 236.228,      4.63 
 236.608,     18.10 
 236.989,     62.98 
 237.370,     22.58 
 237.750,     36.05 
 238.131,     87.67 
 238.511,    -35.77 
 238.892,     54.00 
 239.272,     11.36 
 239.653,     -6.59 
 240.033,     13.61 
 240.413,     71.96 
 240.794,    -38.01 
 241.174,     22.58 
 241.554,    -22.30 
 241.934,      9.12 
 242.314,     33.81 
 242.694,    -24.55 
 243.075,     -2.10 
 243.455,    -62.70 
 243.835,     18.10 
 244.215,     33.81 
 244.595,    -40.26 
 244.974,   -130.03 
 245.354,     40.54 
 245.734,    -38.01 
 246.114,    -13.33 
 246.494,     29.32 
 246.873,    -89.63 
 247.253,    -40.26 
 247.633,    -20.06 
 248.012,      9.12 
 248.392,    -20.06 
 248.771,    -51.48 
 249.151,    -80.66 
 249.530,    -58.21 
 249.910,      2.38 
 250.289,    -44.75 
 250.669,     18.10 
 251.048,    -58.21 
 251.427,     -8.84 
 251.806,      2.38 
 252.186,    -20.06 
 252.565,   -136.77 
 252.944,    -15.57 
 253.323,     13.61 
 253.702,     -8.84 
 254.081,    -35.77 
 254.460,    -26.79 
 254.839,     11.36 
 255.218,    -15.57 
 255.597,    -26.79 
 255.976,     60.74 
 256.355,      4.63 
 256.733,    -76.17 
 257.112,    -51.48 
 257.491,    -67.19 
 257.870,     -8.84 
 258.248,      2.38 
 258.627,     -6.59 
 259.005,    -35.77 
 259.384,     65.23 
 259.762,     24.83 
 260.141,     18.10 
 260.519,    -49.24 
 260.898,      4.63 
 261.276,     42.78 
 261.654,    -24.55 
 262.033,    -26.79 
 262.411,    137.05 
 262.789,     49.52 
 263.167,    -13.33 
 263.545,     -8.84 
 263.924,     33.81 
 264.302,    -31.28 
 264.680,      9.12 
 265.058,    -15.57 
 265.436,      2.38 
 265.813,     67.47 
 266.191,    -53.72 
 266.569,     33.81 
 266.947,    -51.48 
 267.325,    -82.90 
 267.702,    -15.57 
 268.080,    -26.79 
 268.458,    -44.75 
 268.835,      6.87 
 269.213,     15.85 
 269.591,    -58.21 
 269.968,      9.12 
 270.346,     42.78 
 270.723,     83.18 
 271.100,     -8.84 
 271.478,    -33.52 
 271.855,     -2.10 
 272.232,    -15.57 
 272.610,    -13.33 
 272.987,     18.10 
 273.364,      6.87 
 273.741,     22.58 
 274.118,    -15.57 
 274.495,    -46.99 
 274.872,     -8.84 
 275.249,     -6.59 
 275.626,     13.61 
 276.003,    -17.81 
 276.380,      6.87 
 276.757,    -58.21 
 277.134,    -15.57 
 277.511,    -40.26 
 277.887,    -17.81 
 278.264,     22.58 
 278.641,     27.07 
 279.018,     54.00 
 279.394,     60.74 
 279.771,     20.34 
 280.147,    -17.81 
 280.524,      9.12 
 280.900,      2.38 
 281.277,    -49.24 
 281.653,    -13.33 
 282.029,     -6.59 
 282.406,      4.63 
 282.782,    -58.21 
 283.158,    -22.30 
 283.534,     13.61 
 283.910,     -6.59 
 284.287,     38.29 
 284.663,     69.72 
 285.039,     18.10 
 285.415,     -6.59 
 285.791,     74.20 
 286.167,    105.62 
 286.542,      4.63 
 286.918,     13.61 
 287.294,     31.56 
 287.670,     47.27 
 288.046,     67.47 
 288.421,     71.96 
 288.797,     56.25 
 289.173,     78.69 
 289.548,    -15.57 
 289.924,     18.10 
 290.299,    110.11 
 290.675,     98.89 
 291.050,     62.98 
 291.426,     85.43 
 291.801,     85.43 
 292.177,     18.10 
 292.552,     29.32 
 292.927,     45.03 
 293.302,    134.80 
 293.678,     87.67 
 294.053,    107.87 
 294.428,     98.89 
 294.803,    141.53 
 295.178,     87.67 
 295.553,     60.74 
 295.928,     98.89 
 296.303,     76.45 
 296.678,     31.56 
 297.053,     62.98 
 297.427,    103.38 
 297.802,    141.53 
 298.177,     80.94 
 298.552,     92.16 
 298.926,     98.89 
 299.301,     62.98 
 299.676,     67.47 
 300.050,    130.31 
 300.425,     67.47 
 300.799,     51.76 
 301.174,     42.78 
 301.548,     54.00 
 301.922,     54.00 
 302.297,     58.49 
 302.671,     33.81 
 303.045,     45.03 
 303.420,     89.91 
 303.794,     45.03 
 304.168,    157.24 
 304.542,     69.72 
 304.916,     98.89 
 305.290,     20.34 
 305.664,     98.89 
 306.038,     76.45 
 306.412,    107.87 
 306.786,    123.58 
 307.160,    238.04 
 307.534,    370.46 
 307.907,    570.20 
 308.281,    826.06 
 308.655,   1046.01 
 309.028,   1214.33 
 309.402,   1239.02 
 309.776,   1292.89 
 310.149,   1254.73 
 310.523,   1203.11 
 310.896,    933.79 
 311.270,    846.26 
 311.643,    817.08 
 312.016,    924.81 
 312.390,    866.46 
 312.763,    927.06 
 313.136,    897.88 
 313.509,    868.70 
 313.883,    911.35 
 314.256,    888.90 
 314.629,    812.59 
 315.002,    879.93 
 315.375,    776.69 
 315.748,    630.80 
 316.121,    693.64 
 316.494,    664.47 
 316.867,    590.40 
 317.240,    626.31 
 317.612,    583.67 
 317.985,    511.85 
 318.358,    567.96 
 318.730,    487.16 
 319.103,    457.99 
 319.476,    433.30 
 319.848,    386.17 
 320.221,    336.79 
 320.593,    289.66 
 320.966,    305.37 
 321.338,    309.86 
 321.711,    285.17 
 322.083,    235.80 
 322.455,    264.97 
 322.828,    206.62 
 323.200,    181.93 
 323.572,    325.57 
 323.944,    264.97 
 324.316,    215.60 
 324.688,    247.02 
 325.060,    233.55 
 325.432,    150.51 
 325.804,    240.29 
 326.176,    143.78 
 326.548,    190.91 
 326.920,    116.85 
 327.292,    107.87 
 327.664,    166.22 
 328.035,    175.20 
 328.407,    172.96 
 328.779,    152.76 
 329.150,    123.58 
 329.522,    114.60 
 329.893,    224.58 
 330.265,     80.94 
 330.636,    137.05 
 331.008,    139.29 
 331.379,    134.80 
 331.750,     85.43 
 332.122,    134.80 
 332.493,    139.29 
 332.864,     94.40 
 333.236,    226.82 
 333.607,    181.93 
 333.978,    155.00 
 334.349,    195.40 
 334.720,    134.80 
 335.091,     98.89 
 335.462,     71.96 
 335.833,    170.71 
 336.204,    143.78 
 336.575,    247.02 
 336.945,    114.60 
 337.316,    175.20 
 337.687,    179.69 
 338.058,    202.13 
 338.428,    141.53 
 338.799,     94.40 
 339.169,    258.24 
 339.540,    224.58 
 339.911,    244.77 
 340.281,    172.96 
 340.651,    166.22 
 341.022,    244.77 
 341.392,    204.38 
 341.762,    244.77 
 342.133,    195.40 
 342.503,    195.40 
 342.873,    222.33 
 343.243,    220.09 
 343.613,    163.98 
 343.984,    193.15 
 344.354,    186.42 
 344.724,    229.06 
 345.094,    105.62 
 345.464,    121.34 
 345.833,    166.22 
 346.203,    172.96 
 346.573,    152.76 
 346.943,    112.36 
 347.313,    199.89 
 347.682,    134.80 
 348.052,    134.80 
 348.422,    179.69 
 348.791,    143.78 
 349.161,    143.78 
 349.530,    125.82 
 349.900,    197.64 
 350.269,    123.58 
 350.638,    204.38 
 351.008,    177.44 
 351.377,    175.20 
 351.746,    163.98 
 352.116,    170.71 
 352.485,    199.89 
 352.854,    141.53 
 353.223,    163.98 
 353.592,    137.05 
 353.961,    179.69 
 354.330,    134.80 
 354.699,    211.11 
 355.068,    206.62 
 355.437,    269.46 
 355.806,    146.02 
 356.175,    157.24 
 356.543,    199.89 
 356.912,    195.40 
 357.281,    134.80 
 357.650,    146.02 
 358.018,    208.86 
 358.387,    139.29 
 358.755,    208.86 
 359.124,    101.14 
 359.492,    116.85 
 359.861,    184.18 
 360.229,    188.67 
 360.597,    157.24 
 360.966,    125.82 
 361.334,    110.11 
 361.702,    168.47 
 362.070,    139.29 
 362.438,    170.71 
 362.807,    170.71 
 363.175,    163.98 
 363.543,    163.98 
 363.911,    181.93 
 364.279,    159.49 
 364.646,    217.84 
 365.014,    215.60 
 365.382,    238.04 
 365.750,    128.07 
 366.118,    175.20 
 366.485,    155.00 
 366.853,    170.71 
 367.221,    197.64 
 367.588,    208.86 
 367.956,    161.73 
 368.323,    184.18 
 368.691,    134.80 
 369.058,    215.60 
 369.426,    161.73 
 369.793,    170.71 
 370.160,    206.62 
 370.528,    179.69 
 370.895,    123.58 
 371.262,    186.42 
 371.629,    132.56 
 371.996,    197.64 
 372.363,    193.15 
 372.730,    161.73 
 373.097,    130.31 
 373.464,    110.11 
 373.831,    179.69 
 374.198,    155.00 
 374.565,    195.40 
 374.932,    197.64 
 375.299,    206.62 
 375.665,    150.51 
 376.032,    172.96 
 376.399,    202.13 
 376.765,    206.62 
 377.132,    231.31 
 377.498,    235.80 
 377.865,    128.07 
 378.231,    166.22 
 378.598,    134.80 
 378.964,    217.84 
 379.331,    190.91 
 379.697,    146.02 
 380.063,    175.20 
 380.429,    211.11 
 380.795,    195.40 
 381.162,    199.89 
 381.528,    215.60 
 381.894,    222.33 
 382.260,    170.71 
 382.626,    128.07 
 382.992,    119.09 
 383.358,    181.93 
 383.723,    163.98 
 384.089,    143.78 
 384.455,    220.09 
 384.821,    303.13 
 385.186,    181.93 
 385.552,    123.58 
 385.918,    190.91 
 386.283,    215.60 
 386.649,    208.86 
 387.014,     76.45 
 387.380,    110.11 
 387.745,    116.85 
 388.111,    233.55 
 388.476,     69.72 
 388.841,     76.45 
 389.206,    177.44 
 389.572,    229.06 
 389.937,    262.73 
 390.302,    217.84 
 390.667,    238.04 
 391.032,    166.22 
 391.397,     76.45 
 391.762,    181.93 
 392.127,    199.89 
 392.492,    163.98 
 392.857,    125.82 
 393.222,    157.24 
 393.587,    199.89 
 393.951,    190.91 
 394.316,    190.91 
 394.681,    121.34 
 395.045,    130.31 
 395.410,    146.02 
 395.774,    150.51 
 396.139,    273.95 
 396.503,    170.71 
 396.868,    146.02 
 397.232,    139.29 
 397.596,    251.51 
 397.961,    325.57 
 398.325,    502.87 
 398.689,    334.55 
 399.053,    247.02 
 399.418,    170.71 
 399.782,    188.67 
 400.146,     92.16 
 400.510,    211.11 
 400.874,    146.02 
 401.238,    137.05 
 401.602,    114.60 
 401.965,     92.16 
 402.329,    148.27 
 402.693,     78.69 
 403.057,    150.51 
 403.420,    188.67 
 403.784,    163.98 
 404.148,    179.69 
 404.511,    152.76 
 404.875,    110.11 
 405.238,    181.93 
 405.602,    186.42 
 405.965,     92.16 
 406.329,    157.24 
 406.692,    175.20 
 407.055,    197.64 
 407.418,    170.71 
 407.782,    184.18 
 408.145,    256.00 
 408.508,    177.44 
 408.871,     58.49 
 409.234,     89.91 
 409.597,    175.20 
 409.960,     96.65 
 410.323,    184.18 
 410.686,    440.03 
 411.049,    976.43 
 411.412,   1402.86 
 411.774,    774.44 
 412.137,    356.99 
 412.500,    208.86 
 412.862,    193.15 
 413.225,    197.64 
 413.588,    101.14 
 413.950,    110.11 
 414.313,    186.42 
 414.675,    146.02 
 415.037,    208.86 
 415.400,    103.38 
 415.762,    181.93 
 416.124,    190.91 
 416.487,     74.20 
 416.849,    130.31 
 417.211,    130.31 
 417.573,    193.15 
 417.935,    170.71 
 418.297,    134.80 
 418.659,    170.71 
 419.021,    119.09 
 419.383,    114.60 
 419.745,    121.34 
 420.107,    107.87 
 420.469,     69.72 
 420.830,     89.91 
 421.192,    155.00 
 421.554,    132.56 
 421.915,    105.62 
 422.277,     98.89 
 422.638,    179.69 
 423.000,    116.85 
 423.361,    112.36 
 423.723,    229.06 
 424.084,    161.73 
 424.446,    175.20 
 424.807,    163.98 
 425.168,    141.53 
 425.529,    172.96 
 425.891,    112.36 
 426.252,    157.24 
 426.613,    177.44 
 426.974,    125.82 
 427.335,    170.71 
 427.696,    112.36 
 428.057,    157.24 
 428.418,    132.56 
 428.778,    186.42 
 429.139,    186.42 
 429.500,     94.40 
 429.861,     83.18 
 430.221,    170.71 
 430.582,    166.22 
 430.943,    155.00 
 431.303,    159.49 
 431.664,     74.20 
 432.024,    224.58 
 432.385,    114.60 
 432.745,    130.31 
 433.105,    107.87 
 433.466,    101.14 
 433.826,    208.86 
 434.186,    453.50 
 434.546,   1198.62 
 434.907,   3326.27 
 435.267,   6073.35 
 435.627,   3270.16 
 435.987,    987.65 
 436.347,    318.84 
 436.707,    224.58 
 437.067,    141.53 
 437.427,     49.52 
 437.786,    226.82 
 438.146,    238.04 
 438.506,    177.44 
 438.866,     96.65 
 439.225,    110.11 
 439.585,    128.07 
 439.944,    123.58 
 440.304,    114.60 
 440.663,    101.14 
 441.023,     76.45 
 441.382,    112.36 
 441.742,    163.98 
 442.101,     71.96 
 442.460,     71.96 
 442.820,    152.76 
 443.179,    193.15 
 443.538,     67.47 
 443.897,    123.58 
 444.256,    125.82 
 444.615,    110.11 
 444.974,     69.72 
 445.333,    121.34 
 445.692,    119.09 
 446.051,    121.34 
 446.410,    166.22 
 446.768,    143.78 
 447.127,    125.82 
 447.486,    105.62 
 447.845,    202.13 
 448.203,    152.76 
 448.562,    119.09 
 448.920,    143.78 
 449.279,     76.45 
 449.637,    121.34 
 449.996,    150.51 
 450.354,    177.44 
 450.712,    128.07 
 451.071,     67.47 
 451.429,    105.62 
 451.787,    105.62 
 452.145,    170.71 
 452.503,     45.03 
 452.861,    157.24 
 453.219,    105.62 
 453.577,    103.38 
 453.935,     96.65 
 454.293,     62.98 
 454.651,    119.09 
 455.009,     56.25 
 455.367,     87.67 
 455.725,    190.91 
 456.082,     89.91 
 456.440,     47.27 
 456.798,     94.40 
 457.155,    146.02 
 457.513,    114.60 
 457.870,     54.00 
 458.228,    103.38 
 458.585,    101.14 
 458.942,    116.85 
 459.300,    103.38 
 459.657,    101.14 
 460.014,     67.47 
 460.371,    143.78 
 460.729,    155.00 
 461.086,     76.45 
 461.443,     22.58 
 461.800,     51.76 
 462.157,    141.53 
 462.514,     92.16 
 462.871,    134.80 
 463.227,     92.16 
 463.584,     42.78 
 463.941,    105.62 
 464.298,    130.31 
 464.655,    112.36 
 465.011,     22.58 
 465.368,    137.05 
 465.724,    141.53 
 466.081,    121.34 
 466.437,    179.69 
 466.794,    148.27 
 467.150,    121.34 
 467.507,     89.91 
 467.863,    116.85 
 468.219,    159.49 
 468.575,     98.89 
 468.932,    121.34 
 469.288,     62.98 
 469.644,    134.80 
 470.000,    134.80 
 470.356,     87.67 
 470.712,     15.85 
 471.068,     29.32 
 471.424,     85.43 
 471.780,     13.61 
 472.135,    110.11 
 472.491,    130.31 
 472.847,     74.20 
 473.203,    105.62 
 473.558,     94.40 
 473.914,    170.71 
 474.269,     33.81 
 474.625,     58.49 
 474.980,     45.03 
 475.336,    146.02 
 475.691,     94.40 
 476.046,     83.18 
 476.402,     78.69 
 476.757,     36.05 
 477.112,     56.25 
 477.467,    139.29 
 477.823,     98.89 
 478.178,     87.67 
 478.533,    139.29 
 478.888,     85.43 
 479.243,    168.47 
 479.598,    152.76 
 479.952,    125.82 
 480.307,    125.82 
 480.662,    197.64 
 481.017,    186.42 
 481.372,    150.51 
 481.726,    177.44 
 482.081,    161.73 
 482.435,    215.60 
 482.790,    179.69 
 483.144,    157.24 
 483.499,    206.62 
 483.853,    105.62 
 484.208,    114.60 
 484.562,    134.80 
 484.916,    206.62 
 485.270,    287.42 
 485.625,    296.39 
 485.979,    624.07 
 486.333,   2682.14 
 486.687,  13466.24 
 487.041,  41302.90 
 487.395,  56402.88 
 487.749,  21328.19 
 488.103,   5395.56 
 488.457,   1458.97 
 488.810,    713.84 
 489.164,    379.44 
 489.518,    300.88 
 489.872,    307.62 
 490.225,    220.09 
 490.579,    152.76 
 490.932,    280.68 
 491.286,    264.97 
 491.639,    181.93 
 491.993,    202.13 
 492.346,    134.80 
 492.700,    186.42 
 493.053,    159.49 
 493.406,    107.87 
 493.759,    179.69 
 494.112,    215.60 
 494.466,    170.71 
 494.819,    130.31 
 495.172,    190.91 
 495.525,    181.93 
 495.878,    134.80 
 496.231,     94.40 
 496.583,     54.00 
 496.936,     96.65 
 497.289,    172.96 
 497.642,    119.09 
 497.994,    206.62 
 498.347,    278.44 
 498.700,    177.44 
 499.052,     78.69 
 499.405,    181.93 
 499.757,    137.05 
 500.110,     78.69 
 500.462,    195.40 
 500.814,    141.53 
 501.167,     60.74 
 501.519,     49.52 
 501.871,     80.94 
 502.223,     58.49 
 502.575,    238.04 
 502.928,    110.11 
 503.280,     87.67 
 503.632,     94.40 
 503.984,     36.05 
 504.335,    119.09 
 504.687,     98.89 
 505.039,    190.91 
 505.391,    116.85 
 505.743,    110.11 
 506.094,    163.98 
 506.446,    137.05 
 506.798,     89.91 
 507.149,     47.27 
 507.501,    105.62 
 507.852,     71.96 
 508.204,     89.91 
 508.555,     27.07 
 508.906,    150.51 
 509.258,     92.16 
 509.609,     71.96 
 509.960,     38.29 
 510.311,    116.85 
 510.663,    112.36 
 511.014,     76.45 
 511.365,    141.53 
 511.716,     69.72 
 512.067,     80.94 
 512.418,     58.49 
 512.768,     71.96 
 513.119,    163.98 
 513.470,     65.23 
 513.821,    155.00 
 514.171,    101.14 
 514.522,     94.40 
 514.873,    101.14 
 515.223,     87.67 
 515.574,     67.47 
 515.924,     62.98 
 516.275,     49.52 
 516.625,     69.72 
 516.975,     92.16 
 517.326,     83.18 
 517.676,    116.85 
 518.026,     76.45 
 518.376,    172.96 
 518.727,     76.45 
 519.077,     51.76 
 519.427,     62.98 
 519.777,    121.34 
 520.127,    121.34 
 520.477,     31.56 
 520.826,    159.49 
 521.176,     60.74 
 521.526,     69.72 
 521.876,    110.11 
 522.225,    119.09 
 522.575,    166.22 
 522.925,    114.60 
 523.274,     65.23 
 523.624,     65.23 
 523.973,     98.89 
 524.323,    119.09 
 524.672,      6.87 
 525.021,     83.18 
 525.371,     29.32 
 525.720,    128.07 
 526.069,     98.89 
 526.418,     98.89 
 526.767,     -8.84 
 527.117,     49.52 
