Wavelength,Intensity
 177.185,    -39.56 
 177.571,    -39.56 
 177.957,    -39.56 
 178.343,    -57.51 
 178.729,     43.48 
 179.115,    -46.29 
 179.500,     27.77 
 179.886,    -14.87 
 180.272,      3.09 
 180.658,     39.00 
 181.043,     -3.65 
 181.429,     -1.40 
 181.815,     12.06 
 182.200,     27.77 
 182.586,     30.02 
 182.972,     -3.65 
 183.357,     12.06 
 183.743,    -28.33 
 184.128,     54.71 
 184.513,     34.51 
 184.899,    -28.33 
 185.284,     50.22 
 185.670,     34.51 
 186.055,    -37.31 
 186.440,     -3.65 
 186.825,    -14.87 
 187.210,    -28.33 
 187.596,     -1.40 
 187.981,      7.57 
 188.366,      5.33 
 188.751,      7.57 
 189.136,    -21.60 
 189.521,    -21.60 
 189.906,     18.80 
 190.291,    -32.82 
 190.676,      7.57 
 191.060,    -46.29 
 191.445,      9.82 
 191.830,      3.09 
 192.215,      3.09 
 192.599,     -1.40 
 192.984,     18.80 
 193.369,     65.93 
 193.753,     30.02 
 194.138,     14.31 
 194.522,    -19.36 
 194.907,    -23.85 
 195.291,    -28.33 
 195.676,    -23.85 
 196.060,     39.00 
 196.445,     39.00 
 196.829,     41.24 
 197.213,    -37.31 
 197.597,     54.71 
 197.982,     -1.40 
 198.366,    -26.09 
 198.750,    -50.78 
 199.134,     30.02 
 199.518,     25.53 
 199.902,     34.51 
 200.286,    -41.80 
 200.670,     -8.14 
 201.054,    -64.24 
 201.438,    -64.24 
 201.822,     36.75 
 202.206,    -32.82 
 202.590,    -37.31 
 202.973,      7.57 
 203.357,     36.75 
 203.741,     14.31 
 204.124,    -37.31 
 204.508,    -35.07 
 204.892,     47.97 
 205.275,    -23.85 
 205.659,    -50.78 
 206.042,     18.80 
 206.426,    -82.20 
 206.809,      3.09 
 207.193,      7.57 
 207.576,    -19.36 
 207.959,     34.51 
 208.342,    -68.73 
 208.726,     12.06 
 209.109,    -28.33 
 209.492,      3.09 
 209.875,    -26.09 
 210.258,      0.84 
 210.641,     36.75 
 211.025,     -3.65 
 211.408,    -59.76 
 211.790,    -75.47 
 212.173,    -46.29 
 212.556,    -32.82 
 212.939,     14.31 
 213.322,    -50.78 
 213.705,    -19.36 
 214.088,    -41.80 
 214.470,    -14.87 
 214.853,    -21.60 
 215.236,    -21.60 
 215.618,    -50.78 
 216.001,    -57.51 
 216.383,    -14.87 
 216.766,     21.04 
 217.148,     52.46 
 217.531,     79.39 
 217.913,    -28.33 
 218.296,     61.44 
 218.678,      3.09 
 219.060,     -5.89 
 219.443,    -50.78 
 219.825,    -17.11 
 220.207,     -5.89 
 220.589,     21.04 
 220.971,    -53.02 
 221.353,     -3.65 
 221.735,    -64.24 
 222.118,     12.06 
 222.500,    -32.82 
 222.881,     30.02 
 223.263,    -12.62 
 223.645,     18.80 
 224.027,      0.84 
 224.409,     16.55 
 224.791,    -68.73 
 225.172,    -64.24 
 225.554,     30.02 
 225.936,     14.31 
 226.317,    -19.36 
 226.699,    -30.58 
 227.081,    -28.33 
 227.462,     -5.89 
 227.844,    -62.00 
 228.225,     54.71 
 228.607,    -55.27 
 228.988,      7.57 
 229.369,    -41.80 
 229.751,     56.95 
 230.132,    -53.02 
 230.513,     50.22 
 230.894,     -3.65 
 231.276,     45.73 
 231.657,     61.44 
 232.038,    -28.33 
 232.419,    -46.29 
 232.800,     39.00 
 233.181,    -28.33 
 233.562,     59.19 
 233.943,     12.06 
 234.324,     43.48 
 234.705,    -39.56 
 235.085,    -10.38 
 235.466,     23.29 
 235.847,    -32.82 
 236.228,     50.22 
 236.608,     54.71 
 236.989,     41.24 
 237.370,     14.31 
 237.750,   -102.40 
 238.131,     16.55 
 238.511,    -41.80 
 238.892,      7.57 
 239.272,    -41.80 
 239.653,      9.82 
 240.033,    -26.09 
 240.413,    -35.07 
 240.794,    -21.60 
 241.174,     -8.14 
 241.554,    -28.33 
 241.934,    -44.05 
 242.314,     21.04 
 242.694,     34.51 
 243.075,    -19.36 
 243.455,     39.00 
 243.835,     -3.65 
 244.215,    -12.62 
 244.595,     32.26 
 244.974,     21.04 
 245.354,      3.09 
 245.734,    -39.56 
 246.114,    -70.98 
 246.494,      5.33 
 246.873,    -21.60 
 247.253,    -19.36 
 247.633,     -1.40 
 248.012,    -50.78 
 248.392,    -68.73 
 248.771,     23.29 
 249.151,    -10.38 
 249.530,     25.53 
 249.910,     23.29 
 250.289,    -48.53 
 250.669,    -62.00 
 251.048,    -28.33 
 251.427,    -44.05 
 251.806,     45.73 
 252.186,    -21.60 
 252.565,      9.82 
 252.944,     23.29 
 253.323,     52.46 
 253.702,     -8.14 
 254.081,     -3.65 
 254.460,    -17.11 
 254.839,     30.02 
 255.218,    -37.31 
 255.597,    -14.87 
 255.976,    -39.56 
 256.355,     -3.65 
 256.733,     72.66 
 257.112,     -1.40 
 257.491,      9.82 
 257.870,    -28.33 
 258.248,    -12.62 
 258.627,    -17.11 
 259.005,    -79.95 
 259.384,    -14.87 
 259.762,   -104.64 
 260.141,    -41.80 
 260.519,     21.04 
 260.898,      9.82 
 261.276,     39.00 
 261.654,     -3.65 
 262.033,     68.17 
 262.411,     43.48 
 262.789,    -28.33 
 263.167,      7.57 
 263.545,    -86.69 
 263.924,     -3.65 
 264.302,     43.48 
 264.680,    -21.60 
 265.058,    -68.73 
 265.436,      7.57 
 265.813,     36.75 
 266.191,     21.04 
 266.569,      7.57 
 266.947,    -41.80 
 267.325,     -8.14 
 267.702,    -21.60 
 268.080,     -1.40 
 268.458,      3.09 
 268.835,     50.22 
 269.213,      9.82 
 269.591,    -12.62 
 269.968,      3.09 
 270.346,      7.57 
 270.723,     52.46 
 271.100,    -35.07 
 271.478,     41.24 
 271.855,    -17.11 
 272.232,    -14.87 
 272.610,      3.09 
 272.987,    -21.60 
 273.364,    -77.71 
 273.741,    -17.11 
 274.118,    -19.36 
 274.495,     43.48 
 274.872,     79.39 
 275.249,    -62.00 
 275.626,     21.04 
 276.003,    -17.11 
 276.380,      7.57 
 276.757,     -3.65 
 277.134,     47.97 
 277.511,    -17.11 
 277.887,     -8.14 
 278.264,     39.00 
 278.641,     52.46 
 279.018,     61.44 
 279.394,     43.48 
 279.771,      9.82 
 280.147,     63.68 
 280.524,     56.95 
 280.900,     56.95 
 281.277,     34.51 
 281.653,      7.57 
 282.029,     -5.89 
 282.406,     -5.89 
 282.782,      7.57 
 283.158,     36.75 
 283.534,    -44.05 
 283.910,     41.24 
 284.287,     36.75 
 284.663,     25.53 
 285.039,     81.64 
 285.415,     16.55 
 285.791,     63.68 
 286.167,     43.48 
 286.542,    -23.85 
 286.918,     74.91 
 287.294,     56.95 
 287.670,    101.84 
 288.046,     47.97 
 288.421,      3.09 
 288.797,     23.29 
 289.173,     39.00 
 289.548,    146.72 
 289.924,     97.35 
 290.299,     74.91 
 290.675,    110.81 
 291.050,    115.30 
 291.426,     79.39 
 291.801,     70.42 
 292.177,     90.62 
 292.552,     99.59 
 292.927,     -8.14 
 293.302,    -10.38 
 293.678,     56.95 
 294.053,     59.19 
 294.428,     90.62 
 294.803,     36.75 
 295.178,     65.93 
 295.553,      5.33 
 295.928,     61.44 
 296.303,     25.53 
 296.678,    133.26 
 297.053,     25.53 
 297.427,    160.19 
 297.802,     50.22 
 298.177,     12.06 
 298.552,     70.42 
 298.926,     54.71 
 299.301,     79.39 
 299.676,     45.73 
 300.050,     56.95 
 300.425,      0.84 
 300.799,     30.02 
 301.174,     70.42 
 301.548,     59.19 
 301.922,     43.48 
 302.297,     68.17 
 302.671,     79.39 
 303.045,     92.86 
 303.420,     72.66 
 303.794,     74.91 
 304.168,    139.99 
 304.542,    104.08 
 304.916,     79.39 
 305.290,     97.35 
 305.664,    101.84 
 306.038,    148.97 
 306.412,    142.24 
 306.786,    160.19 
 307.160,    261.19 
 307.534,    469.91 
 307.907,    759.43 
 308.281,    930.00 
 308.655,    921.02 
 309.028,    885.12 
 309.402,   1116.28 
 309.776,   1228.50 
 310.149,   1345.21 
 310.523,   1491.09 
 310.896,   1264.41 
 311.270,   1179.13 
 311.643,    963.67 
 312.016,    880.63 
 312.390,    889.60 
 312.763,    835.74 
 313.136,    840.23 
 313.509,    840.23 
 313.883,    898.58 
 314.256,    781.88 
 314.629,    788.61 
 315.002,    797.59 
 315.375,    860.43 
 315.748,    748.21 
 316.121,    790.85 
 316.494,    723.52 
 316.867,    658.44 
 317.240,    734.74 
 317.612,    613.55 
 317.985,    532.75 
 318.358,    566.42 
 318.730,    481.13 
 319.103,    454.20 
 319.476,    431.76 
 319.848,    447.47 
 320.221,    373.40 
 320.593,    438.49 
 320.966,    301.58 
 321.338,    306.07 
 321.711,    341.98 
 322.083,    359.94 
 322.455,    357.69 
 322.828,    409.31 
 323.200,    294.85 
 323.572,    328.52 
 323.944,    247.72 
 324.316,    333.01 
 324.688,    249.96 
 325.060,    310.56 
 325.432,    274.65 
 325.804,    223.03 
 326.176,    229.77 
 326.548,    216.30 
 326.920,    223.03 
 327.292,    189.37 
 327.664,    173.66 
 328.035,    187.12 
 328.407,    196.10 
 328.779,    223.03 
 329.150,    223.03 
 329.522,    207.32 
 329.893,    205.08 
 330.265,    162.43 
 330.636,    187.12 
 331.008,    162.43 
 331.379,     63.68 
 331.750,    198.34 
 332.122,    216.30 
 332.493,    166.92 
 332.864,    196.10 
 333.236,    187.12 
 333.607,    182.63 
 333.978,    209.57 
 334.349,    146.72 
 334.720,     83.88 
 335.091,    166.92 
 335.462,    144.48 
 335.833,    216.30 
 336.204,    211.81 
 336.575,    245.48 
 336.945,    205.08 
 337.316,    279.14 
 337.687,    157.95 
 338.058,    227.52 
 338.428,    223.03 
 338.799,    238.74 
 339.169,    202.83 
 339.540,    171.41 
 339.911,    182.63 
 340.281,    238.74 
 340.651,    191.61 
 341.022,    146.72 
 341.392,    144.48 
 341.762,    182.63 
 342.133,    229.77 
 342.503,    175.90 
 342.873,    153.46 
 343.243,    191.61 
 343.613,    187.12 
 343.984,    205.08 
 344.354,    191.61 
 344.724,    227.52 
 345.094,    193.86 
 345.464,    166.92 
 345.833,    252.21 
 346.203,    202.83 
 346.573,    182.63 
 346.943,    162.43 
 347.313,    207.32 
 347.682,    229.77 
 348.052,    198.34 
 348.422,    227.52 
 348.791,    198.34 
 349.161,    211.81 
 349.530,    178.15 
 349.900,    146.72 
 350.269,    189.37 
 350.638,    178.15 
 351.008,    135.50 
 351.377,    252.21 
 351.746,    249.96 
 352.116,    243.23 
 352.485,    200.59 
 352.854,    160.19 
 353.223,    198.34 
 353.592,    202.83 
 353.961,    155.70 
 354.330,    216.30 
 354.699,    245.48 
 355.068,    180.39 
 355.437,    299.34 
 355.806,    142.24 
 356.175,    164.68 
 356.543,    162.43 
 356.912,    247.72 
 357.281,    200.59 
 357.650,    245.48 
 358.018,    223.03 
 358.387,    184.88 
 358.755,    142.24 
 359.124,    218.54 
 359.492,    243.23 
 359.861,    207.32 
 360.229,    191.61 
 360.597,    308.32 
 360.966,    216.30 
 361.334,    193.86 
 361.702,    234.25 
 362.070,    187.12 
 362.438,    258.94 
 362.807,    175.90 
 363.175,    270.16 
 363.543,    205.08 
 363.911,    198.34 
 364.279,    234.25 
 364.646,    196.10 
 365.014,    189.37 
 365.382,    151.21 
 365.750,    153.46 
 366.118,    245.48 
 366.485,    171.41 
 366.853,    189.37 
 367.221,    223.03 
 367.588,    160.19 
 367.956,    249.96 
 368.323,    187.12 
 368.691,    175.90 
 369.058,    236.50 
 369.426,    225.28 
 369.793,    209.57 
 370.160,    178.15 
 370.528,    160.19 
 370.895,    218.54 
 371.262,    184.88 
 371.629,    153.46 
 371.996,    122.04 
 372.363,    182.63 
 372.730,    157.95 
 373.097,    171.41 
 373.464,    157.95 
 373.831,    196.10 
 374.198,    225.28 
 374.565,    135.50 
 374.932,    205.08 
 375.299,    187.12 
 375.665,    189.37 
 376.032,    175.90 
 376.399,    160.19 
 376.765,    191.61 
 377.132,    151.21 
 377.498,    243.23 
 377.865,    243.23 
 378.231,    209.57 
 378.598,    238.74 
 378.964,    189.37 
 379.331,    243.23 
 379.697,    198.34 
 380.063,    151.21 
 380.429,    187.12 
 380.795,    189.37 
 381.162,    124.28 
 381.528,    198.34 
 381.894,    249.96 
 382.260,    216.30 
 382.626,    236.50 
 382.992,    160.19 
 383.358,    166.92 
 383.723,    209.57 
 384.089,    171.41 
 384.455,    184.88 
 384.821,    162.43 
 385.186,    184.88 
 385.552,    249.96 
 385.918,    214.05 
 386.283,    236.50 
 386.649,    198.34 
 387.014,    234.25 
 387.380,    223.03 
 387.745,    189.37 
 388.111,    265.67 
 388.476,    223.03 
 388.841,    169.17 
 389.206,    135.50 
 389.572,    205.08 
 389.937,    196.10 
 390.302,    191.61 
 390.667,    223.03 
 391.032,    223.03 
 391.397,    155.70 
 391.762,    207.32 
 392.127,    232.01 
 392.492,    160.19 
 392.857,    290.36 
 393.222,    166.92 
 393.587,    133.26 
 393.951,    137.75 
 394.316,    106.33 
 394.681,    124.28 
 395.045,    166.92 
 395.410,    187.12 
 395.774,    169.17 
 396.139,    133.26 
 396.503,    160.19 
 396.868,    223.03 
 397.232,    189.37 
 397.596,    205.08 
 397.961,    189.37 
 398.325,    220.79 
 398.689,    191.61 
 399.053,    227.52 
 399.418,    128.77 
 399.782,    157.95 
 400.146,    180.39 
 400.510,    187.12 
 400.874,    124.28 
 401.238,    234.25 
 401.602,    137.75 
 401.965,    142.24 
 402.329,    211.81 
 402.693,    128.77 
 403.057,    171.41 
 403.420,    169.17 
 403.784,    169.17 
 404.148,    178.15 
 404.511,    198.34 
 404.875,    182.63 
 405.238,    137.75 
 405.602,    202.83 
 405.965,    182.63 
 406.329,    155.70 
 406.692,    198.34 
 407.055,    160.19 
 407.418,    187.12 
 407.782,    189.37 
 408.145,    285.87 
 408.508,    153.46 
 408.871,    196.10 
 409.234,    193.86 
 409.597,    240.99 
 409.960,    229.77 
 410.323,    166.92 
 410.686,    216.30 
 411.049,    427.27 
 411.412,    267.92 
 411.774,    294.85 
 412.137,    232.01 
 412.500,     79.39 
 412.862,     81.64 
 413.225,     92.86 
 413.588,     83.88 
 413.950,    153.46 
 414.313,    139.99 
 414.675,     97.35 
 415.037,    146.72 
 415.400,    139.99 
 415.762,     90.62 
 416.124,    151.21 
 416.487,    162.43 
 416.849,     92.86 
 417.211,    236.50 
 417.573,     99.59 
 417.935,    155.70 
 418.297,    202.83 
 418.659,    171.41 
 419.021,    128.77 
 419.383,    162.43 
 419.745,    142.24 
 420.107,    191.61 
 420.469,    180.39 
 420.830,    135.50 
 421.192,    187.12 
 421.554,    164.68 
 421.915,    211.81 
 422.277,    173.66 
 422.638,    144.48 
 423.000,    180.39 
 423.361,    225.28 
 423.723,    115.30 
 424.084,    115.30 
 424.446,    104.08 
 424.807,    187.12 
 425.168,     88.37 
 425.529,     79.39 
 425.891,    137.75 
 426.252,    133.26 
 426.613,    119.79 
 426.974,    139.99 
 427.335,    175.90 
 427.696,    148.97 
 428.057,    142.24 
 428.418,    110.81 
 428.778,     97.35 
 429.139,    200.59 
 429.500,     92.86 
 429.861,    101.84 
 430.221,     56.95 
 430.582,     88.37 
 430.943,    151.21 
 431.303,     47.97 
 431.664,    162.43 
 432.024,    106.33 
 432.385,    227.52 
 432.745,    133.26 
 433.105,    144.48 
 433.466,    157.95 
 433.826,    169.17 
 434.186,    151.21 
 434.546,    169.17 
 434.907,    393.60 
 435.267,    770.65 
 435.627,    550.71 
 435.987,    193.86 
 436.347,    146.72 
 436.707,    124.28 
 437.067,    232.01 
 437.427,    146.72 
 437.786,    128.77 
 438.146,    151.21 
 438.506,     70.42 
 438.866,    178.15 
 439.225,    124.28 
 439.585,    160.19 
 439.944,    106.33 
 440.304,    115.30 
 440.663,    110.81 
 441.023,    133.26 
 441.382,     54.71 
 441.742,    193.86 
 442.101,    164.68 
 442.460,    124.28 
 442.820,    151.21 
 443.179,    198.34 
 443.538,    101.84 
 443.897,    151.21 
 444.256,    131.01 
 444.615,    144.48 
 444.974,     61.44 
 445.333,     45.73 
 445.692,    133.26 
 446.051,    182.63 
 446.410,    117.55 
 446.768,    173.66 
 447.127,     88.37 
 447.486,    106.33 
 447.845,    187.12 
 448.203,     79.39 
 448.562,    101.84 
 448.920,    128.77 
 449.279,    128.77 
 449.637,     63.68 
 449.996,    169.17 
 450.354,    122.04 
 450.712,     18.80 
 451.071,    180.39 
 451.429,    133.26 
 451.787,    115.30 
 452.145,     72.66 
 452.503,     92.86 
 452.861,     59.19 
 453.219,    180.39 
 453.577,     88.37 
 453.935,      3.09 
 454.293,     90.62 
 454.651,    142.24 
 455.009,    128.77 
 455.367,    126.53 
 455.725,    187.12 
 456.082,    160.19 
 456.440,    207.32 
 456.798,    180.39 
 457.155,    124.28 
 457.513,    135.50 
 457.870,    200.59 
 458.228,    160.19 
 458.585,    175.90 
 458.942,    171.41 
 459.300,     86.13 
 459.657,    101.84 
 460.014,     99.59 
 460.371,     90.62 
 460.729,    108.57 
 461.086,    108.57 
 461.443,    117.55 
 461.800,     59.19 
 462.157,    104.08 
 462.514,     97.35 
 462.871,    151.21 
 463.227,     99.59 
 463.584,    182.63 
 463.941,    117.55 
 464.298,    238.74 
 464.655,    247.72 
 465.011,    166.92 
 465.368,     86.13 
 465.724,     83.88 
 466.081,    131.01 
 466.437,    128.77 
 466.794,    110.81 
 467.150,    117.55 
 467.507,    106.33 
 467.863,    139.99 
 468.219,     86.13 
 468.575,    122.04 
 468.932,    164.68 
 469.288,    115.30 
 469.644,    113.06 
 470.000,     88.37 
 470.356,    113.06 
 470.712,    142.24 
 471.068,     56.95 
 471.424,      3.09 
 471.780,    106.33 
 472.135,    151.21 
 472.491,    108.57 
 472.847,     90.62 
 473.203,    178.15 
 473.558,    133.26 
 473.914,    151.21 
 474.269,     90.62 
 474.625,    117.55 
 474.980,     59.19 
 475.336,    113.06 
 475.691,    144.48 
 476.046,     59.19 
 476.402,    119.79 
 476.757,     61.44 
 477.112,     86.13 
 477.467,    148.97 
 477.823,     79.39 
 478.178,     88.37 
 478.533,     88.37 
 478.888,    178.15 
 479.243,    131.01 
 479.598,    169.17 
 479.952,    124.28 
 480.307,     79.39 
 480.662,    144.48 
 481.017,    126.53 
 481.372,    135.50 
 481.726,     88.37 
 482.081,    173.66 
 482.435,    122.04 
 482.790,    108.57 
 483.144,     70.42 
 483.499,    137.75 
 483.853,    173.66 
 484.208,     43.48 
 484.562,    182.63 
 484.916,    164.68 
 485.270,    146.72 
 485.625,    196.10 
 485.979,    142.24 
 486.333,    407.07 
 486.687,   1313.79 
 487.041,   4478.32 
 487.395,   9503.42 
 487.749,   4725.20 
 488.103,   1372.14 
 488.457,    420.53 
 488.810,    254.45 
 489.164,    166.92 
 489.518,    187.12 
 489.872,     92.86 
 490.225,     39.00 
 490.579,    151.21 
 490.932,    108.57 
 491.286,    139.99 
 491.639,     99.59 
 491.993,    119.79 
 492.346,     74.91 
 492.700,     70.42 
 493.053,     77.15 
 493.406,    135.50 
 493.759,    214.05 
 494.112,    187.12 
 494.466,    234.25 
 494.819,    279.14 
 495.172,    135.50 
 495.525,     90.62 
 495.878,     68.17 
 496.231,    106.33 
 496.583,    160.19 
 496.936,    171.41 
 497.289,    135.50 
 497.642,    135.50 
 497.994,    108.57 
 498.347,    214.05 
 498.700,    196.10 
 499.052,    193.86 
 499.405,     92.86 
 499.757,    101.84 
 500.110,     45.73 
 500.462,     65.93 
 500.814,    106.33 
 501.167,    151.21 
 501.519,    157.95 
 501.871,    126.53 
 502.223,    164.68 
 502.575,    162.43 
 502.928,    108.57 
 503.280,    119.79 
 503.632,     90.62 
 503.984,     79.39 
 504.335,    110.81 
 504.687,    151.21 
 505.039,     65.93 
 505.391,     79.39 
 505.743,     74.91 
 506.094,     65.93 
 506.446,    166.92 
 506.798,     72.66 
 507.149,    187.12 
 507.501,    124.28 
 507.852,     79.39 
 508.204,    189.37 
 508.555,    115.30 
 508.906,    115.30 
 509.258,     92.86 
 509.609,     63.68 
 509.960,     95.10 
 510.311,     99.59 
 510.663,    106.33 
 511.014,    119.79 
 511.365,    178.15 
 511.716,     81.64 
 512.067,     79.39 
 512.418,     70.42 
 512.768,     79.39 
 513.119,    124.28 
 513.470,    128.77 
 513.821,     59.19 
 514.171,     86.13 
 514.522,     59.19 
 514.873,    108.57 
 515.223,     95.10 
 515.574,     43.48 
 515.924,     86.13 
 516.275,     56.95 
 516.625,     88.37 
 516.975,    115.30 
 517.326,    131.01 
 517.676,    115.30 
 518.026,     90.62 
 518.376,    124.28 
 518.727,    115.30 
 519.077,     72.66 
 519.427,    117.55 
 519.777,     68.17 
 520.127,    164.68 
 520.477,     79.39 
 520.826,     90.62 
 521.176,    101.84 
 521.526,     47.97 
 521.876,     92.86 
 522.225,      3.09 
 522.575,     65.93 
 522.925,    131.01 
 523.274,     52.46 
 523.624,    104.08 
 523.973,    110.81 
 524.323,     88.37 
 524.672,    139.99 
 525.021,     79.39 
 525.371,     43.48 
 525.720,     47.97 
 526.069,     81.64 
 526.418,     70.42 
 526.767,     72.66 
 527.117,    119.79 
