Wavelength,Intensity
 177.185,    -30.30 
 177.571,    -30.30 
 177.957,    -30.30 
 178.343,     -5.61 
 178.729,     -3.37 
 179.115,     19.08 
 179.500,      3.37 
 179.886,    -21.32 
 180.272,     16.83 
 180.658,     59.48 
 181.043,    -37.03 
 181.429,     21.32 
 181.815,    -68.45 
 182.200,     -3.37 
 182.586,     43.76 
 182.972,    -63.96 
 183.357,     39.28 
 183.743,     30.30 
 184.128,    -48.25 
 184.513,    -43.76 
 184.899,     19.08 
 185.284,    -57.23 
 185.670,     25.81 
 186.055,      7.86 
 186.440,     10.10 
 186.825,     14.59 
 187.210,     25.81 
 187.596,    -10.10 
 187.981,    -19.08 
 188.366,     25.81 
 188.751,    -48.25 
 189.136,    -14.59 
 189.521,    -50.50 
 189.906,    -59.48 
 190.291,     12.34 
 190.676,    -32.54 
 191.060,    -14.59 
 191.445,    -21.32 
 191.830,    -54.99 
 192.215,      3.37 
 192.599,    -21.32 
 192.984,    -41.52 
 193.369,    -34.79 
 193.753,     14.59 
 194.138,     61.72 
 194.522,     30.30 
 194.907,     -1.12 
 195.291,     -3.37 
 195.676,     -3.37 
 196.060,    -48.25 
 196.445,    -19.08 
 196.829,      1.12 
 197.213,    -57.23 
 197.597,    -41.52 
 197.982,    -32.54 
 198.366,     21.32 
 198.750,    -37.03 
 199.134,     -3.37 
 199.518,     -1.12 
 199.902,    -46.01 
 200.286,    -10.10 
 200.670,    -50.50 
 201.054,     37.03 
 201.438,     72.94 
 201.822,      7.86 
 202.206,    -28.05 
 202.590,    -32.54 
 202.973,     50.50 
 203.357,     50.50 
 203.741,      7.86 
 204.124,     14.59 
 204.508,     88.65 
 204.892,     14.59 
 205.275,     16.83 
 205.659,    -48.25 
 206.042,     -7.86 
 206.426,    -12.34 
 206.809,     48.25 
 207.193,     28.05 
 207.576,      3.37 
 207.959,      3.37 
 208.342,     19.08 
 208.726,    -21.32 
 209.109,    -43.76 
 209.492,    -81.92 
 209.875,     -5.61 
 210.258,     -1.12 
 210.641,    -25.81 
 211.025,    -12.34 
 211.408,     10.10 
 211.790,    -37.03 
 212.173,      3.37 
 212.556,    -10.10 
 212.939,    -30.30 
 213.322,    -28.05 
 213.705,      5.61 
 214.088,    -46.01 
 214.470,    -25.81 
 214.853,    -25.81 
 215.236,    -57.23 
 215.618,     -7.86 
 216.001,    -32.54 
 216.383,    -19.08 
 216.766,     14.59 
 217.148,    -72.94 
 217.531,    -32.54 
 217.913,    -43.76 
 218.296,    -23.57 
 218.678,      3.37 
 219.060,     41.52 
 219.443,    -39.28 
 219.825,    -16.83 
 220.207,    -41.52 
 220.589,    -16.83 
 220.971,     12.34 
 221.353,     12.34 
 221.735,    -50.50 
 222.118,    -32.54 
 222.500,     -3.37 
 222.881,    -28.05 
 223.263,    -21.32 
 223.645,     39.28 
 224.027,    -95.38 
 224.409,    -54.99 
 224.791,   -104.36 
 225.172,    -93.14 
 225.554,    -50.50 
 225.936,    -95.38 
 226.317,      3.37 
 226.699,    -66.21 
 227.081,     66.21 
 227.462,     14.59 
 227.844,     48.25 
 228.225,    -32.54 
 228.607,     43.76 
 228.988,    -30.30 
 229.369,    -25.81 
 229.751,    -86.41 
 230.132,     46.01 
 230.513,    -21.32 
 230.894,    -30.30 
 231.276,    -39.28 
 231.657,    -68.45 
 232.038,    -19.08 
 232.419,     -7.86 
 232.800,    -52.74 
 233.181,     -5.61 
 233.562,    -95.38 
 233.943,    -39.28 
 234.324,     25.81 
 234.705,      5.61 
 235.085,      5.61 
 235.466,     32.54 
 235.847,    -30.30 
 236.228,     19.08 
 236.608,    -61.72 
 236.989,    -32.54 
 237.370,    -75.19 
 237.750,    -23.57 
 238.131,     39.28 
 238.511,     23.57 
 238.892,    -32.54 
 239.272,    -66.21 
 239.653,    -32.54 
 240.033,    -19.08 
 240.413,    -19.08 
 240.794,    -23.57 
 241.174,    -23.57 
 241.554,    -68.45 
 241.934,    -19.08 
 242.314,    -43.76 
 242.694,    -23.57 
 243.075,    -70.70 
 243.455,     -5.61 
 243.835,    -32.54 
 244.215,    -32.54 
 244.595,      3.37 
 244.974,     -7.86 
 245.354,     -3.37 
 245.734,    -23.57 
 246.114,     -1.12 
 246.494,    -19.08 
 246.873,     -5.61 
 247.253,    -37.03 
 247.633,    -19.08 
 248.012,     10.10 
 248.392,    -66.21 
 248.771,    -59.48 
 249.151,    -50.50 
 249.530,    -77.43 
 249.910,    -21.32 
 250.289,    -75.19 
 250.669,    -25.81 
 251.048,     43.76 
 251.427,     -5.61 
 251.806,    -28.05 
 252.186,      3.37 
 252.565,     14.59 
 252.944,     19.08 
 253.323,    -50.50 
 253.702,     -7.86 
 254.081,    -21.32 
 254.460,    -32.54 
 254.839,    -66.21 
 255.218,     21.32 
 255.597,    -10.10 
 255.976,    -41.52 
 256.355,    -19.08 
 256.733,     14.59 
 257.112,     -5.61 
 257.491,    -19.08 
 257.870,     25.81 
 258.248,    -30.30 
 258.627,     30.30 
 259.005,    -68.45 
 259.384,    -68.45 
 259.762,     25.81 
 260.141,      1.12 
 260.519,    -41.52 
 260.898,    -70.70 
 261.276,    -61.72 
 261.654,    -75.19 
 262.033,    -97.63 
 262.411,    -30.30 
 262.789,    -61.72 
 263.167,    -23.57 
 263.545,      7.86 
 263.924,    -16.83 
 264.302,    -25.81 
 264.680,    -30.30 
 265.058,     19.08 
 265.436,      5.61 
 265.813,     63.96 
 266.191,    -52.74 
 266.569,     -7.86 
 266.947,     19.08 
 267.325,     34.79 
 267.702,      1.12 
 268.080,     50.50 
 268.458,     16.83 
 268.835,    -41.52 
 269.213,    -66.21 
 269.591,    -34.79 
 269.968,     21.32 
 270.346,     37.03 
 270.723,      5.61 
 271.100,    -12.34 
 271.478,     57.23 
 271.855,    -19.08 
 272.232,     23.57 
 272.610,     -7.86 
 272.987,    -19.08 
 273.364,     -1.12 
 273.741,    -34.79 
 274.118,     48.25 
 274.495,     19.08 
 274.872,     14.59 
 275.249,     14.59 
 275.626,      7.86 
 276.003,     63.96 
 276.380,     57.23 
 276.757,    -14.59 
 277.134,     39.28 
 277.511,     88.65 
 277.887,     48.25 
 278.264,    -19.08 
 278.641,     -5.61 
 279.018,    -21.32 
 279.394,     12.34 
 279.771,     -5.61 
 280.147,     39.28 
 280.524,     25.81 
 280.900,    -32.54 
 281.277,      7.86 
 281.653,     46.01 
 282.029,      3.37 
 282.406,     93.14 
 282.782,     99.87 
 283.158,    111.10 
 283.534,    131.29 
 283.910,     68.45 
 284.287,     75.19 
 284.663,     57.23 
 285.039,    117.83 
 285.415,    131.29 
 285.791,    160.47 
 286.167,    120.07 
 286.542,    126.81 
 286.918,    147.00 
 287.294,    187.40 
 287.670,    129.05 
 288.046,     95.38 
 288.421,    173.94 
 288.797,     95.38 
 289.173,    162.72 
 289.548,    187.40 
 289.924,    140.27 
 290.299,    189.65 
 290.675,    234.53 
 291.050,    256.98 
 291.426,    187.40 
 291.801,    176.18 
 292.177,    241.27 
 292.552,    185.16 
 292.927,    104.36 
 293.302,    147.00 
 293.678,    212.09 
 294.053,    178.43 
 294.428,    153.74 
 294.803,    182.91 
 295.178,    138.03 
 295.553,    203.11 
 295.928,    223.31 
 296.303,    115.58 
 296.678,    124.56 
 297.053,    142.52 
 297.427,    223.31 
 297.802,    113.34 
 298.177,    162.72 
 298.552,    158.23 
 298.926,    151.49 
 299.301,    185.16 
 299.676,    176.18 
 300.050,    180.67 
 300.425,    301.86 
 300.799,    283.91 
 301.174,    209.85 
 301.548,    158.23 
 301.922,    230.05 
 302.297,    243.51 
 302.671,    234.53 
 303.045,    196.38 
 303.420,    241.27 
 303.794,    239.02 
 304.168,    225.56 
 304.542,    212.09 
 304.916,    277.18 
 305.290,    301.86 
 305.664,    333.29 
 306.038,    319.82 
 306.412,    346.75 
 306.786,    512.83 
 307.160,    809.09 
 307.534,   1296.11 
 307.907,   2034.50 
 308.281,   2456.44 
 308.655,   2265.67 
 309.028,   2510.30 
 309.402,   3078.13 
 309.776,   3351.94 
 310.149,   3737.96 
 310.523,   4108.28 
 310.896,   3473.13 
 311.270,   3096.08 
 311.643,   2766.16 
 312.016,   2503.57 
 312.390,   2420.53 
 312.763,   2341.98 
 313.136,   2236.49 
 313.509,   2312.80 
 313.883,   2326.27 
 314.256,   2061.43 
 314.629,   1911.06 
 315.002,   2135.50 
 315.375,   2030.01 
 315.748,   2038.99 
 316.121,   2016.55 
 316.494,   1924.53 
 316.867,   1753.96 
 317.240,   1780.89 
 317.612,   1691.12 
 317.985,   1610.32 
 318.358,   1475.66 
 318.730,   1464.44 
 319.103,   1367.93 
 319.476,   1269.18 
 319.848,   1287.13 
 320.221,   1147.98 
 320.593,   1035.77 
 320.966,    990.88 
 321.338,   1011.08 
 321.711,    896.62 
 322.083,    880.91 
 322.455,    952.73 
 322.828,    961.70 
 323.200,    860.71 
 323.572,    961.70 
 323.944,    831.53 
 324.316,    860.71 
 324.688,    858.46 
 325.060,    692.38 
 325.432,    667.69 
 325.804,    640.76 
 326.176,    625.05 
 326.548,    555.48 
 326.920,    528.54 
 327.292,    474.68 
 327.664,    544.25 
 328.035,    510.59 
 328.407,    420.82 
 328.779,    510.59 
 329.150,    562.21 
 329.522,    553.23 
 329.893,    524.06 
 330.265,    593.63 
 330.636,    443.26 
 331.008,    463.46 
 331.379,    472.44 
 331.750,    474.68 
 332.122,    423.06 
 332.493,    436.53 
 332.864,    472.44 
 333.236,    524.06 
 333.607,    436.53 
 333.978,    436.53 
 334.349,    333.29 
 334.720,    443.26 
 335.091,    400.62 
 335.462,    470.19 
 335.833,    436.53 
 336.204,    479.17 
 336.575,    407.35 
 336.945,    485.90 
 337.316,    499.37 
 337.687,    436.53 
 338.058,    443.26 
 338.428,    546.50 
 338.799,    517.32 
 339.169,    537.52 
 339.540,    434.28 
 339.911,    535.28 
 340.281,    528.54 
 340.651,    438.77 
 341.022,    420.82 
 341.392,    492.63 
 341.762,    479.17 
 342.133,    389.39 
 342.503,    452.24 
 342.873,    400.62 
 343.243,    474.68 
 343.613,    409.59 
 343.984,    470.19 
 344.354,    470.19 
 344.724,    638.52 
 345.094,    479.17 
 345.464,    494.88 
 345.833,    566.70 
 346.203,    542.01 
 346.573,    441.01 
 346.943,    506.10 
 347.313,    535.28 
 347.682,    582.41 
 348.052,    465.70 
 348.422,    577.92 
 348.791,    568.94 
 349.161,    586.90 
 349.530,    499.37 
 349.900,    530.79 
 350.269,    537.52 
 350.638,    564.45 
 351.008,    571.19 
 351.377,    494.88 
 351.746,    501.61 
 352.116,    524.06 
 352.485,    517.32 
 352.854,    526.30 
 353.223,    483.66 
 353.592,    506.10 
 353.961,    515.08 
 354.330,    521.81 
 354.699,    521.81 
 355.068,    521.81 
 355.437,    436.53 
 355.806,    465.70 
 356.175,    524.06 
 356.543,    458.97 
 356.912,    398.37 
 357.281,    539.77 
 357.650,    449.99 
 358.018,    557.72 
 358.387,    488.15 
 358.755,    452.24 
 359.124,    438.77 
 359.492,    494.88 
 359.861,    510.59 
 360.229,    476.92 
 360.597,    409.59 
 360.966,    391.64 
 361.334,    445.50 
 361.702,    447.75 
 362.070,    546.50 
 362.438,    425.30 
 362.807,    497.12 
 363.175,    497.12 
 363.543,    434.28 
 363.911,    434.28 
 364.279,    445.50 
 364.646,    521.81 
 365.014,    512.83 
 365.382,    490.39 
 365.750,    506.10 
 366.118,    461.21 
 366.485,    470.19 
 366.853,    481.41 
 367.221,    512.83 
 367.588,    449.99 
 367.956,    535.28 
 368.323,    436.53 
 368.691,    499.37 
 369.058,    528.54 
 369.426,    530.79 
 369.793,    479.17 
 370.160,    481.41 
 370.528,    481.41 
 370.895,    501.61 
 371.262,    517.32 
 371.629,    528.54 
 371.996,    488.15 
 372.363,    454.48 
 372.730,    488.15 
 373.097,    463.46 
 373.464,    492.63 
 373.831,    454.48 
 374.198,    546.50 
 374.565,    494.88 
 374.932,    438.77 
 375.299,    438.77 
 375.665,    497.12 
 376.032,    425.30 
 376.399,    441.01 
 376.765,    494.88 
 377.132,    454.48 
 377.498,    463.46 
 377.865,    485.90 
 378.231,    497.12 
 378.598,    485.90 
 378.964,    506.10 
 379.331,    472.44 
 379.697,    519.57 
 380.063,    463.46 
 380.429,    524.06 
 380.795,    470.19 
 381.162,    611.59 
 381.528,    533.03 
 381.894,    467.95 
 382.260,    528.54 
 382.626,    441.01 
 382.992,    497.12 
 383.358,    488.15 
 383.723,    526.30 
 384.089,    474.68 
 384.455,    517.32 
 384.821,    454.48 
 385.186,    483.66 
 385.552,    429.79 
 385.918,    465.70 
 386.283,    524.06 
 386.649,    458.97 
 387.014,    510.59 
 387.380,    519.57 
 387.745,    539.77 
 388.111,    447.75 
 388.476,    418.57 
 388.841,    467.95 
 389.206,    510.59 
 389.572,    490.39 
 389.937,    485.90 
 390.302,    548.74 
 390.667,    463.46 
 391.032,    445.50 
 391.397,    465.70 
 391.762,    434.28 
 392.127,    458.97 
 392.492,    353.49 
 392.857,    355.73 
 393.222,    447.75 
 393.587,    483.66 
 393.951,    497.12 
 394.316,    501.61 
 394.681,    458.97 
 395.045,    519.57 
 395.410,    521.81 
 395.774,    407.35 
 396.139,    555.48 
 396.503,    405.11 
 396.868,    375.93 
 397.232,    364.71 
 397.596,    402.86 
 397.961,    441.01 
 398.325,    521.81 
 398.689,    479.17 
 399.053,    434.28 
 399.418,    510.59 
 399.782,    427.55 
 400.146,    483.66 
 400.510,    351.24 
 400.874,    398.37 
 401.238,    434.28 
 401.602,    393.88 
 401.965,    427.55 
 402.329,    449.99 
 402.693,    411.84 
 403.057,    326.55 
 403.420,    340.02 
 403.784,    384.91 
 404.148,    375.93 
 404.511,    362.46 
 404.875,    371.44 
 405.238,    423.06 
 405.602,    443.26 
 405.965,    407.35 
 406.329,    389.39 
 406.692,    423.06 
 407.055,    357.97 
 407.418,    452.24 
 407.782,    434.28 
 408.145,    398.37 
 408.508,    470.19 
 408.871,    434.28 
 409.234,    344.51 
 409.597,    497.12 
 409.960,    400.62 
 410.323,    429.79 
 410.686,    452.24 
 411.049,    616.07 
 411.412,    672.18 
 411.774,    571.19 
 412.137,    501.61 
 412.500,    286.15 
 412.862,    274.93 
 413.225,    432.04 
 413.588,    393.88 
 413.950,    322.06 
 414.313,    409.59 
 414.675,    391.64 
 415.037,    290.64 
 415.400,    418.57 
 415.762,    333.29 
 416.124,    409.59 
 416.487,    407.35 
 416.849,    353.49 
 417.211,    402.86 
 417.573,    402.86 
 417.935,    364.71 
 418.297,    414.08 
 418.659,    461.21 
 419.021,    519.57 
 419.383,    497.12 
 419.745,    371.44 
 420.107,    405.11 
 420.469,    384.91 
 420.830,    452.24 
 421.192,    418.57 
 421.554,    472.44 
 421.915,    438.77 
 422.277,    458.97 
 422.638,    331.04 
 423.000,    342.26 
 423.361,    411.84 
 423.723,    308.60 
 424.084,    456.73 
 424.446,    295.13 
 424.807,    292.89 
 425.168,    265.96 
 425.529,    259.22 
 425.891,    265.96 
 426.252,    411.84 
 426.613,    326.55 
 426.974,    378.17 
 427.335,    349.00 
 427.696,    337.77 
 428.057,    277.18 
 428.418,    387.15 
 428.778,    342.26 
 429.139,    322.06 
 429.500,    279.42 
 429.861,    299.62 
 430.221,    337.77 
 430.582,    331.04 
 430.943,    281.67 
 431.303,    407.35 
 431.664,    337.77 
 432.024,    335.53 
 432.385,    270.44 
 432.745,    351.24 
 433.105,    241.27 
 433.466,    310.84 
 433.826,    290.64 
 434.186,    362.46 
 434.546,    555.48 
 434.907,   1024.55 
 435.267,   1828.02 
 435.627,   1567.68 
 435.987,    714.83 
 436.347,    391.64 
 436.707,    360.22 
 437.067,    317.58 
 437.427,    268.20 
 437.786,    319.82 
 438.146,    281.67 
 438.506,    322.06 
 438.866,    319.82 
 439.225,    227.80 
 439.585,    315.33 
 439.944,    331.04 
 440.304,    328.80 
 440.663,    353.49 
 441.023,    366.95 
 441.382,    384.91 
 441.742,    342.26 
 442.101,    384.91 
 442.460,    382.66 
 442.820,    429.79 
 443.179,    456.73 
 443.538,    335.53 
 443.897,    355.73 
 444.256,    304.11 
 444.615,    250.24 
 444.974,    364.71 
 445.333,    241.27 
 445.692,    340.02 
 446.051,    301.86 
 446.410,    380.42 
 446.768,    335.53 
 447.127,    407.35 
 447.486,    420.82 
 447.845,    308.60 
 448.203,    308.60 
 448.562,    277.18 
 448.920,    286.15 
 449.279,    384.91 
 449.637,    389.39 
 449.996,    340.02 
 450.354,    313.09 
 450.712,    373.68 
 451.071,    328.80 
 451.429,    353.49 
 451.787,    310.84 
 452.145,    290.64 
 452.503,    279.42 
 452.861,    295.13 
 453.219,    331.04 
 453.577,    335.53 
 453.935,    277.18 
 454.293,    261.47 
 454.651,    344.51 
 455.009,    265.96 
 455.367,    218.82 
 455.725,    198.62 
 456.082,    317.58 
 456.440,    349.00 
 456.798,    310.84 
 457.155,    322.06 
 457.513,    373.68 
 457.870,    315.33 
 458.228,    340.02 
 458.585,    407.35 
 458.942,    414.08 
 459.300,    492.63 
 459.657,    380.42 
 460.014,    366.95 
 460.371,    182.91 
 460.729,    254.73 
 461.086,    290.64 
 461.443,    173.94 
 461.800,    313.09 
 462.157,    198.62 
 462.514,    140.27 
 462.871,    236.78 
 463.227,    254.73 
 463.584,    346.75 
 463.941,    409.59 
 464.298,    566.70 
 464.655,    631.78 
 465.011,    492.63 
 465.368,    346.75 
 465.724,    351.24 
 466.081,    304.11 
 466.437,    306.35 
 466.794,    362.46 
 467.150,    256.98 
 467.507,    263.71 
 467.863,    265.96 
 468.219,    342.26 
 468.575,    232.29 
 468.932,    344.51 
 469.288,    319.82 
 469.644,    274.93 
 470.000,    326.55 
 470.356,    335.53 
 470.712,    308.60 
 471.068,    227.80 
 471.424,    209.85 
 471.780,    169.45 
 472.135,    214.34 
 472.491,    245.76 
 472.847,    304.11 
 473.203,    288.40 
 473.558,    328.80 
 473.914,    380.42 
 474.269,    218.82 
 474.625,    239.02 
 474.980,    250.24 
 475.336,    263.71 
 475.691,    200.87 
 476.046,    212.09 
 476.402,    223.31 
 476.757,    290.64 
 477.112,    295.13 
 477.467,    286.15 
 477.823,    254.73 
 478.178,    380.42 
 478.533,    265.96 
 478.888,    301.86 
 479.243,    331.04 
 479.598,    353.49 
 479.952,    353.49 
 480.307,    308.60 
 480.662,    384.91 
 481.017,    393.88 
 481.372,    371.44 
 481.726,    313.09 
 482.081,    380.42 
 482.435,    400.62 
 482.790,    259.22 
 483.144,    227.80 
 483.499,    306.35 
 483.853,    317.58 
 484.208,    295.13 
 484.562,    364.71 
 484.916,    357.97 
 485.270,    362.46 
 485.625,    407.35 
 485.979,    566.70 
 486.333,   1073.92 
 486.687,   3434.98 
 487.041,  11207.16 
 487.395,  24646.32 
 487.749,  12010.64 
 488.103,   3526.99 
 488.457,   1161.45 
 488.810,    708.09 
 489.164,    488.15 
 489.518,    420.82 
 489.872,    375.93 
 490.225,    346.75 
 490.579,    340.02 
 490.932,    304.11 
 491.286,    342.26 
 491.639,    409.59 
 491.993,    393.88 
 492.346,    241.27 
 492.700,    290.64 
 493.053,    319.82 
 493.406,    366.95 
 493.759,    485.90 
 494.112,    640.76 
 494.466,    755.22 
 494.819,    703.60 
 495.172,    472.44 
 495.525,    279.42 
 495.878,    297.38 
 496.231,    308.60 
 496.583,    304.11 
 496.936,    373.68 
 497.289,    342.26 
 497.642,    389.39 
 497.994,    362.46 
 498.347,    313.09 
 498.700,    351.24 
 499.052,    268.20 
 499.405,    310.84 
 499.757,    239.02 
 500.110,    203.11 
 500.462,    209.85 
 500.814,    214.34 
 501.167,    319.82 
 501.519,    236.78 
 501.871,    306.35 
 502.223,    434.28 
 502.575,    449.99 
 502.928,    344.51 
 503.280,    340.02 
 503.632,    268.20 
 503.984,    308.60 
 504.335,    326.55 
 504.687,    274.93 
 505.039,    230.05 
 505.391,    279.42 
 505.743,    241.27 
 506.094,    239.02 
 506.446,    245.76 
 506.798,    277.18 
 507.149,    286.15 
 507.501,    241.27 
 507.852,    279.42 
 508.204,    310.84 
 508.555,    301.86 
 508.906,    335.53 
 509.258,    277.18 
 509.609,    319.82 
 509.960,    349.00 
 510.311,    216.58 
 510.663,    230.05 
 511.014,    301.86 
 511.365,    216.58 
 511.716,    218.82 
 512.067,    279.42 
 512.418,    299.62 
 512.768,    230.05 
 513.119,    239.02 
 513.470,    259.22 
 513.821,    162.72 
 514.171,    241.27 
 514.522,    196.38 
 514.873,    203.11 
 515.223,    254.73 
 515.574,    198.62 
 515.924,    212.09 
 516.275,    248.00 
 516.625,    185.16 
 516.975,    178.43 
 517.326,    223.31 
 517.676,    254.73 
 518.026,    214.34 
 518.376,    288.40 
 518.727,    277.18 
 519.077,    250.24 
 519.427,    308.60 
 519.777,    218.82 
 520.127,    212.09 
 520.477,    301.86 
 520.826,    259.22 
 521.176,    301.86 
 521.526,    274.93 
 521.876,    295.13 
 522.225,    234.53 
 522.575,    209.85 
 522.925,    214.34 
 523.274,    223.31 
 523.624,    212.09 
 523.973,    227.80 
 524.323,    171.69 
 524.672,    225.56 
 525.021,    140.27 
 525.371,    223.31 
 525.720,    254.73 
 526.069,    248.00 
 526.418,    261.47 
 526.767,    317.58 
 527.117,    248.00 
